 Be Density=1.848 Thickness=10. microns
 Photon Energy (eV), Transmission
    500.00      0.24691E-03
    515.00      0.47833E-03
    530.00      0.86450E-03
    545.00      0.14708E-02
    560.00      0.23732E-02
    575.00      0.36911E-02
    590.00      0.55058E-02
    605.00      0.79102E-02
    620.00      0.10993E-01
    635.00      0.14834E-01
    650.00      0.19746E-01
    665.00      0.25697E-01
    680.00      0.32396E-01
    695.00      0.39476E-01
    710.00      0.47654E-01
    725.00      0.57002E-01
    740.00      0.67436E-01
    755.00      0.78758E-01
    770.00      0.90909E-01
    785.00      0.10382    
    800.00      0.11743    
    815.00      0.13166    
    830.00      0.14643    
    845.00      0.16167    
    860.00      0.17730    
    875.00      0.19325    
    890.00      0.20939    
    905.00      0.22567    
    920.00      0.24207    
    935.00      0.25854    
    950.00      0.27521    
    965.00      0.29189    
    980.00      0.30849    
    995.00      0.32497    
    1010.0      0.34129    
    1025.0      0.35743    
    1040.0      0.37335    
    1055.0      0.38903    
    1070.0      0.40446    
    1085.0      0.41961    
    1100.0      0.43448    
    1115.0      0.44904    
    1130.0      0.46329    
    1145.0      0.47723    
    1160.0      0.49085    
    1175.0      0.50415    
    1190.0      0.51711    
    1205.0      0.52976    
    1220.0      0.54208    
    1235.0      0.55408    
    1250.0      0.56576    
    1265.0      0.57712    
    1280.0      0.58817    
    1295.0      0.59892    
    1310.0      0.60936    
    1325.0      0.61951    
    1340.0      0.62937    
    1355.0      0.63895    
    1370.0      0.64826    
    1385.0      0.65730    
    1400.0      0.66608    
    1415.0      0.67460    
    1430.0      0.68287    
    1445.0      0.69089    
    1460.0      0.69868    
    1475.0      0.70625    
    1490.0      0.71358    
    1505.0      0.72070    
    1520.0      0.72764    
    1535.0      0.73449    
    1550.0      0.74113    
    1565.0      0.74758    
    1580.0      0.75383    
    1595.0      0.75989    
    1610.0      0.76578    
    1625.0      0.77149    
    1640.0      0.77703    
    1655.0      0.78241    
    1670.0      0.78763    
    1685.0      0.79269    
    1700.0      0.79761    
    1715.0      0.80239    
    1730.0      0.80702    
    1745.0      0.81152    
    1760.0      0.81589    
    1775.0      0.82014    
    1790.0      0.82426    
    1805.0      0.82827    
    1820.0      0.83216    
    1835.0      0.83594    
    1850.0      0.83961    
    1865.0      0.84319    
    1880.0      0.84666    
    1895.0      0.85003    
    1910.0      0.85331    
    1925.0      0.85650    
    1940.0      0.85961    
    1955.0      0.86262    
    1970.0      0.86556    
    1985.0      0.86842    
    2000.0      0.87120    
    2015.0      0.87390    
    2030.0      0.87655    
    2045.0      0.87916    
    2060.0      0.88171    
    2075.0      0.88418    
    2090.0      0.88660    
    2105.0      0.88894    
    2120.0      0.89123    
    2135.0      0.89345    
    2150.0      0.89562    
    2165.0      0.89773    
    2180.0      0.89979    
    2195.0      0.90179    
    2210.0      0.90374    
    2225.0      0.90564    
    2240.0      0.90750    
    2255.0      0.90931    
    2270.0      0.91107    
    2285.0      0.91279    
    2300.0      0.91446    
    2315.0      0.91610    
    2330.0      0.91769    
    2345.0      0.91925    
    2360.0      0.92076    
    2375.0      0.92225    
    2390.0      0.92369    
    2405.0      0.92510    
    2420.0      0.92648    
    2435.0      0.92782    
    2450.0      0.92914    
    2465.0      0.93042    
    2480.0      0.93167    
    2495.0      0.93289    
    2510.0      0.93409    
    2525.0      0.93525    
    2540.0      0.93639    
    2555.0      0.93751    
    2570.0      0.93860    
    2585.0      0.93966    
    2600.0      0.94070    
    2615.0      0.94172    
    2630.0      0.94271    
    2645.0      0.94368    
    2660.0      0.94464    
    2675.0      0.94557    
    2690.0      0.94648    
    2705.0      0.94737    
    2720.0      0.94824    
    2735.0      0.94909    
    2750.0      0.94992    
    2765.0      0.95074    
    2780.0      0.95154    
    2795.0      0.95232    
    2810.0      0.95308    
    2825.0      0.95383    
    2840.0      0.95457    
    2855.0      0.95529    
    2870.0      0.95599    
    2885.0      0.95668    
    2900.0      0.95735    
    2915.0      0.95802    
    2930.0      0.95866    
    2945.0      0.95930    
    2960.0      0.95992    
    2975.0      0.96053    
    2990.0      0.96113    
    3005.0      0.96171    
    3020.0      0.96229    
    3035.0      0.96286    
    3050.0      0.96342    
    3065.0      0.96397    
    3080.0      0.96451    
    3095.0      0.96504    
    3110.0      0.96556    
    3125.0      0.96607    
    3140.0      0.96657    
    3155.0      0.96706    
    3170.0      0.96754    
    3185.0      0.96801    
    3200.0      0.96848    
    3215.0      0.96893    
    3230.0      0.96937    
    3245.0      0.96981    
    3260.0      0.97024    
    3275.0      0.97066    
    3290.0      0.97107    
    3305.0      0.97148    
    3320.0      0.97188    
    3335.0      0.97227    
    3350.0      0.97265    
    3365.0      0.97303    
    3380.0      0.97340    
    3395.0      0.97376    
    3410.0      0.97412    
    3425.0      0.97447    
    3440.0      0.97481    
    3455.0      0.97515    
    3470.0      0.97548    
    3485.0      0.97581    
    3500.0      0.97613    
    3515.0      0.97644    
    3530.0      0.97675    
    3545.0      0.97706    
    3560.0      0.97736    
    3575.0      0.97765    
    3590.0      0.97794    
    3605.0      0.97822    
    3620.0      0.97850    
    3635.0      0.97878    
    3650.0      0.97905    
    3665.0      0.97931    
    3680.0      0.97957    
    3695.0      0.97983    
    3710.0      0.98008    
    3725.0      0.98033    
    3740.0      0.98057    
    3755.0      0.98081    
    3770.0      0.98105    
    3785.0      0.98128    
    3800.0      0.98151    
    3815.0      0.98174    
    3830.0      0.98196    
    3845.0      0.98217    
    3860.0      0.98239    
    3875.0      0.98260    
    3890.0      0.98281    
    3905.0      0.98301    
    3920.0      0.98321    
    3935.0      0.98341    
    3950.0      0.98361    
    3965.0      0.98380    
    3980.0      0.98399    
    3995.0      0.98417    
    4010.0      0.98436    
    4025.0      0.98454    
    4040.0      0.98471    
    4055.0      0.98489    
    4070.0      0.98506    
    4085.0      0.98523    
    4100.0      0.98540    
    4115.0      0.98556    
    4130.0      0.98573    
    4145.0      0.98589    
    4160.0      0.98605    
    4175.0      0.98620    
    4190.0      0.98636    
    4205.0      0.98651    
    4220.0      0.98666    
    4235.0      0.98681    
    4250.0      0.98695    
    4265.0      0.98710    
    4280.0      0.98724    
    4295.0      0.98738    
    4310.0      0.98752    
    4325.0      0.98765    
    4340.0      0.98778    
    4355.0      0.98791    
    4370.0      0.98804    
    4385.0      0.98817    
    4400.0      0.98830    
    4415.0      0.98842    
    4430.0      0.98854    
    4445.0      0.98867    
    4460.0      0.98878    
    4475.0      0.98890    
    4490.0      0.98902    
    4505.0      0.98913    
    4520.0      0.98924    
    4535.0      0.98935    
    4550.0      0.98946    
    4565.0      0.98957    
    4580.0      0.98968    
    4595.0      0.98978    
    4610.0      0.98989    
    4625.0      0.98999    
    4640.0      0.99009    
    4655.0      0.99019    
    4670.0      0.99029    
    4685.0      0.99038    
    4700.0      0.99048    
    4715.0      0.99057    
    4730.0      0.99067    
    4745.0      0.99076    
    4760.0      0.99085    
    4775.0      0.99094    
    4790.0      0.99103    
    4805.0      0.99111    
    4820.0      0.99120    
    4835.0      0.99128    
    4850.0      0.99137    
    4865.0      0.99145    
    4880.0      0.99153    
    4895.0      0.99161    
    4910.0      0.99169    
    4925.0      0.99177    
    4940.0      0.99185    
    4955.0      0.99193    
    4970.0      0.99200    
    4985.0      0.99208    
    5000.0      0.99215    
    5015.0      0.99222    
    5030.0      0.99229    
    5045.0      0.99236    
    5060.0      0.99243    
    5075.0      0.99250    
    5090.0      0.99257    
    5105.0      0.99264    
    5120.0      0.99271    
    5135.0      0.99277    
    5150.0      0.99284    
    5165.0      0.99290    
    5180.0      0.99297    
    5195.0      0.99303    
    5210.0      0.99309    
    5225.0      0.99315    
    5240.0      0.99321    
    5255.0      0.99327    
    5270.0      0.99333    
    5285.0      0.99339    
    5300.0      0.99345    
    5315.0      0.99351    
    5330.0      0.99356    
    5345.0      0.99362    
    5360.0      0.99368    
    5375.0      0.99373    
    5390.0      0.99378    
    5405.0      0.99384    
    5420.0      0.99389    
    5435.0      0.99394    
    5450.0      0.99400    
    5465.0      0.99405    
    5480.0      0.99410    
    5495.0      0.99415    
    5510.0      0.99420    
    5525.0      0.99424    
    5540.0      0.99429    
    5555.0      0.99434    
    5570.0      0.99439    
    5585.0      0.99443    
    5600.0      0.99448    
    5615.0      0.99453    
    5630.0      0.99457    
    5645.0      0.99462    
    5660.0      0.99466    
    5675.0      0.99470    
    5690.0      0.99475    
    5705.0      0.99479    
    5720.0      0.99483    
    5735.0      0.99487    
    5750.0      0.99491    
    5765.0      0.99496    
    5780.0      0.99500    
    5795.0      0.99504    
    5810.0      0.99507    
    5825.0      0.99511    
    5840.0      0.99515    
    5855.0      0.99519    
    5870.0      0.99523    
    5885.0      0.99527    
    5900.0      0.99530    
    5915.0      0.99534    
    5930.0      0.99538    
    5945.0      0.99541    
    5960.0      0.99545    
    5975.0      0.99548    
    5990.0      0.99552    
    6005.0      0.99555    
    6020.0      0.99558    
    6035.0      0.99562    
    6050.0      0.99565    
    6065.0      0.99568    
    6080.0      0.99572    
    6095.0      0.99575    
    6110.0      0.99578    
    6125.0      0.99581    
    6140.0      0.99584    
    6155.0      0.99587    
    6170.0      0.99590    
    6185.0      0.99593    
    6200.0      0.99596    
    6215.0      0.99599    
    6230.0      0.99602    
    6245.0      0.99605    
    6260.0      0.99608    
    6275.0      0.99611    
    6290.0      0.99614    
    6305.0      0.99617    
    6320.0      0.99619    
    6335.0      0.99622    
    6350.0      0.99625    
    6365.0      0.99628    
    6380.0      0.99630    
    6395.0      0.99633    
    6410.0      0.99635    
    6425.0      0.99638    
    6440.0      0.99641    
    6455.0      0.99643    
    6470.0      0.99646    
    6485.0      0.99648    
    6500.0      0.99651    
    6515.0      0.99653    
    6530.0      0.99655    
    6545.0      0.99658    
    6560.0      0.99660    
    6575.0      0.99663    
    6590.0      0.99665    
    6605.0      0.99667    
    6620.0      0.99669    
    6635.0      0.99672    
    6650.0      0.99674    
    6665.0      0.99676    
    6680.0      0.99678    
    6695.0      0.99681    
    6710.0      0.99683    
    6725.0      0.99685    
    6740.0      0.99687    
    6755.0      0.99689    
    6770.0      0.99691    
    6785.0      0.99693    
    6800.0      0.99695    
    6815.0      0.99697    
    6830.0      0.99699    
    6845.0      0.99701    
    6860.0      0.99703    
    6875.0      0.99705    
    6890.0      0.99707    
    6905.0      0.99709    
    6920.0      0.99711    
    6935.0      0.99713    
    6950.0      0.99715    
    6965.0      0.99716    
    6980.0      0.99718    
    6995.0      0.99720    
    7010.0      0.99722    
    7025.0      0.99724    
    7040.0      0.99725    
    7055.0      0.99727    
    7070.0      0.99729    
    7085.0      0.99730    
    7100.0      0.99732    
    7115.0      0.99734    
    7130.0      0.99735    
    7145.0      0.99737    
    7160.0      0.99739    
    7175.0      0.99740    
    7190.0      0.99742    
    7205.0      0.99744    
    7220.0      0.99745    
    7235.0      0.99747    
    7250.0      0.99748    
    7265.0      0.99750    
    7280.0      0.99751    
    7295.0      0.99753    
    7310.0      0.99754    
    7325.0      0.99756    
    7340.0      0.99757    
    7355.0      0.99759    
    7370.0      0.99760    
    7385.0      0.99761    
    7400.0      0.99763    
    7415.0      0.99764    
    7430.0      0.99766    
    7445.0      0.99767    
    7460.0      0.99768    
    7475.0      0.99770    
    7490.0      0.99771    
    7505.0      0.99772    
    7520.0      0.99774    
    7535.0      0.99775    
    7550.0      0.99776    
    7565.0      0.99778    
    7580.0      0.99779    
    7595.0      0.99780    
    7610.0      0.99781    
    7625.0      0.99783    
    7640.0      0.99784    
    7655.0      0.99785    
    7670.0      0.99786    
    7685.0      0.99788    
    7700.0      0.99789    
    7715.0      0.99790    
    7730.0      0.99791    
    7745.0      0.99792    
    7760.0      0.99793    
    7775.0      0.99795    
    7790.0      0.99796    
    7805.0      0.99797    
    7820.0      0.99798    
    7835.0      0.99799    
    7850.0      0.99800    
    7865.0      0.99801    
    7880.0      0.99802    
    7895.0      0.99803    
    7910.0      0.99804    
    7925.0      0.99806    
    7940.0      0.99807    
    7955.0      0.99808    
    7970.0      0.99809    
    7985.0      0.99810    
    8000.0      0.99811    
