 Be Density=1.848 Thickness=50. microns
 Photon Energy (eV), Transmission
    10.000      0.00000    
    25.980      0.00000    
    41.960      0.00000    
    57.940      0.00000    
    73.920      0.93699E-37
    89.900      0.15941E-31
    105.88      0.15660E-26
    121.86      0.00000    
    137.84      0.00000    
    153.82      0.00000    
    169.80      0.00000    
    185.78      0.00000    
    201.76      0.00000    
    217.74      0.00000    
    233.72      0.00000    
    249.70      0.00000    
    265.68      0.00000    
    281.66      0.00000    
    297.64      0.00000    
    313.62      0.00000    
    329.60      0.00000    
    345.58      0.00000    
    361.56      0.84078E-44
    377.54      0.43510E-39
    393.52      0.53742E-35
    409.50      0.25758E-31
    425.48      0.42537E-28
    441.46      0.26158E-25
    457.44      0.70355E-23
    473.42      0.94263E-21
    489.40      0.69942E-19
    505.38      0.31366E-17
    521.36      0.91362E-16
    537.34      0.18355E-14
    553.32      0.26746E-13
    569.30      0.30354E-12
    585.28      0.27550E-11
    601.26      0.20037E-10
    617.24      0.11999E-09
    633.22      0.60567E-09
    649.20      0.27882E-08
    665.18      0.11376E-07
    681.16      0.38656E-07
    697.14      0.10967E-06
    713.12      0.29787E-06
    729.10      0.76223E-06
    745.08      0.18264E-05
    761.06      0.40765E-05
    777.04      0.85342E-05
    793.02      0.16865E-04
    809.00      0.31632E-04
    824.98      0.56592E-04
    840.96      0.97002E-04
    856.94      0.15989E-03
    872.92      0.25436E-03
    888.90      0.39118E-03
    904.88      0.58357E-03
    920.86      0.84756E-03
    936.84      0.12009E-02
    952.82      0.16709E-02
    968.80      0.22763E-02
    984.78      0.30405E-02
    1000.8      0.39886E-02
    1016.7      0.51453E-02
    1032.7      0.65361E-02
    1048.7      0.81848E-02
    1064.7      0.10115E-01
    1080.7      0.12348E-01
    1096.6      0.14902E-01
    1112.6      0.17795E-01
    1128.6      0.21042E-01
    1144.6      0.24654E-01
    1160.6      0.28640E-01
    1176.5      0.33005E-01
    1192.5      0.37750E-01
    1208.5      0.42880E-01
    1224.5      0.48390E-01
    1240.5      0.54274E-01
    1256.4      0.60525E-01
    1272.4      0.67135E-01
    1288.4      0.74090E-01
    1304.4      0.81380E-01
    1320.4      0.88988E-01
    1336.3      0.96899E-01
    1352.3      0.10510    
    1368.3      0.11357    
    1384.3      0.12229    
    1400.3      0.13126    
    1416.2      0.14043    
    1432.2      0.14980    
    1448.2      0.15934    
    1464.2      0.16905    
    1480.2      0.17890    
    1496.1      0.18886    
    1512.1      0.19894    
    1528.1      0.20925    
    1544.1      0.21971    
    1560.1      0.23023    
    1576.0      0.24080    
    1592.0      0.25140    
    1608.0      0.26201    
    1624.0      0.27263    
    1640.0      0.28324    
    1655.9      0.29382    
    1671.9      0.30438    
    1687.9      0.31489    
    1703.9      0.32535    
    1719.9      0.33575    
    1735.8      0.34608    
    1751.8      0.35633    
    1767.8      0.36650    
    1783.8      0.37658    
    1799.8      0.38656    
    1815.7      0.39644    
    1831.7      0.40621    
    1847.7      0.41587    
    1863.7      0.42542    
    1879.7      0.43485    
    1895.6      0.44416    
    1911.6      0.45334    
    1927.6      0.46241    
    1943.6      0.47134    
    1959.6      0.48015    
    1975.5      0.48882    
    1991.5      0.49737    
    2007.5      0.50579    
    2023.5      0.51408    
    2039.5      0.52238    
    2055.4      0.53056    
    2071.4      0.53861    
    2087.4      0.54653    
    2103.4      0.55431    
    2119.4      0.56196    
    2135.3      0.56948    
    2151.3      0.57686    
    2167.3      0.58411    
    2183.3      0.59124    
    2199.3      0.59823    
    2215.2      0.60510    
    2231.2      0.61185    
    2247.2      0.61847    
    2263.2      0.62497    
    2279.2      0.63134    
    2295.1      0.63761    
    2311.1      0.64375    
    2327.1      0.64977    
    2343.1      0.65569    
    2359.1      0.66149    
    2375.0      0.66718    
    2391.0      0.67276    
    2407.0      0.67824    
    2423.0      0.68361    
    2439.0      0.68888    
    2454.9      0.69405    
    2470.9      0.69912    
    2486.9      0.70409    
    2502.9      0.70896    
    2518.9      0.71375    
    2534.8      0.71844    
    2550.8      0.72304    
    2566.8      0.72755    
    2582.8      0.73197    
    2598.8      0.73631    
    2614.7      0.74056    
    2630.7      0.74474    
    2646.7      0.74883    
    2662.7      0.75285    
    2678.7      0.75679    
    2694.6      0.76065    
    2710.6      0.76444    
    2726.6      0.76815    
    2742.6      0.77180    
    2758.6      0.77537    
    2774.5      0.77888    
    2790.5      0.78232    
    2806.5      0.78569    
    2822.5      0.78900    
    2838.5      0.79225    
    2854.4      0.79544    
    2870.4      0.79857    
    2886.4      0.80163    
    2902.4      0.80464    
    2918.4      0.80760    
    2934.3      0.81049    
    2950.3      0.81334    
    2966.3      0.81613    
    2982.3      0.81887    
    2998.3      0.82156    
    3014.2      0.82420    
    3030.2      0.82680    
    3046.2      0.82940    
    3062.2      0.83194    
    3078.2      0.83443    
    3094.1      0.83688    
    3110.1      0.83928    
    3126.1      0.84164    
    3142.1      0.84396    
    3158.1      0.84623    
    3174.0      0.84847    
    3190.0      0.85066    
    3206.0      0.85281    
    3222.0      0.85492    
    3238.0      0.85700    
    3253.9      0.85903    
    3269.9      0.86103    
    3285.9      0.86300    
    3301.9      0.86493    
    3317.9      0.86682    
    3333.8      0.86868    
    3349.8      0.87051    
    3365.8      0.87231    
    3381.8      0.87407    
    3397.8      0.87581    
    3413.7      0.87751    
    3429.7      0.87918    
    3445.7      0.88083    
    3461.7      0.88245    
    3477.7      0.88403    
    3493.6      0.88559    
    3509.6      0.88713    
    3525.6      0.88864    
    3541.6      0.89012    
    3557.6      0.89157    
    3573.5      0.89301    
    3589.5      0.89441    
    3605.5      0.89580    
    3621.5      0.89716    
    3637.5      0.89850    
    3653.4      0.89981    
    3669.4      0.90111    
    3685.4      0.90238    
    3701.4      0.90363    
    3717.4      0.90486    
    3733.3      0.90607    
    3749.3      0.90726    
    3765.3      0.90843    
    3781.3      0.90958    
    3797.3      0.91072    
    3813.2      0.91183    
    3829.2      0.91293    
    3845.2      0.91401    
    3861.2      0.91507    
    3877.2      0.91611    
    3893.1      0.91714    
    3909.1      0.91815    
    3925.1      0.91915    
    3941.1      0.92013    
    3957.1      0.92110    
    3973.0      0.92205    
    3989.0      0.92298    
    4005.0      0.92390    
    4021.0      0.92481    
    4037.0      0.92570    
    4052.9      0.92658    
    4068.9      0.92744    
    4084.9      0.92829    
    4100.9      0.92913    
    4116.9      0.92997    
    4132.8      0.93079    
    4148.8      0.93160    
    4164.8      0.93240    
    4180.8      0.93318    
    4196.8      0.93396    
    4212.7      0.93472    
    4228.7      0.93547    
    4244.7      0.93621    
    4260.7      0.93693    
    4276.7      0.93765    
    4292.6      0.93836    
    4308.6      0.93905    
    4324.6      0.93974    
    4340.6      0.94042    
    4356.6      0.94108    
    4372.5      0.94174    
    4388.5      0.94238    
    4404.5      0.94302    
    4420.5      0.94365    
    4436.5      0.94427    
    4452.4      0.94488    
    4468.4      0.94548    
    4484.4      0.94607    
    4500.4      0.94666    
    4516.4      0.94723    
    4532.3      0.94780    
    4548.3      0.94836    
    4564.3      0.94891    
    4580.3      0.94945    
    4596.3      0.94999    
    4612.2      0.95052    
    4628.2      0.95104    
    4644.2      0.95156    
    4660.2      0.95206    
    4676.2      0.95256    
    4692.1      0.95306    
    4708.1      0.95354    
    4724.1      0.95402    
    4740.1      0.95449    
    4756.1      0.95496    
    4772.0      0.95542    
    4788.0      0.95588    
    4804.0      0.95632    
    4820.0      0.95677    
    4836.0      0.95720    
    4851.9      0.95763    
    4867.9      0.95806    
    4883.9      0.95847    
    4899.9      0.95889    
    4915.9      0.95930    
    4931.8      0.95970    
    4947.8      0.96010    
    4963.8      0.96049    
    4979.8      0.96087    
    4995.8      0.96126    
    5011.7      0.96163    
    5027.7      0.96200    
    5043.7      0.96237    
    5059.7      0.96273    
    5075.7      0.96309    
    5091.6      0.96345    
    5107.6      0.96379    
    5123.6      0.96414    
    5139.6      0.96448    
    5155.6      0.96481    
    5171.5      0.96514    
    5187.5      0.96547    
    5203.5      0.96579    
    5219.5      0.96611    
    5235.5      0.96643    
    5251.4      0.96675    
    5267.4      0.96705    
    5283.4      0.96736    
    5299.4      0.96766    
    5315.4      0.96796    
    5331.3      0.96826    
    5347.3      0.96855    
    5363.3      0.96883    
    5379.3      0.96912    
    5395.3      0.96940    
    5411.2      0.96968    
    5427.2      0.96995    
    5443.2      0.97022    
    5459.2      0.97049    
    5475.2      0.97075    
    5491.1      0.97101    
    5507.1      0.97127    
    5523.1      0.97152    
    5539.1      0.97178    
    5555.1      0.97202    
    5571.0      0.97227    
    5587.0      0.97251    
    5603.0      0.97275    
    5619.0      0.97299    
    5635.0      0.97322    
    5650.9      0.97345    
    5666.9      0.97368    
    5682.9      0.97391    
    5698.9      0.97413    
    5714.9      0.97435    
    5730.8      0.97457    
    5746.8      0.97479    
    5762.8      0.97500    
    5778.8      0.97521    
    5794.8      0.97542    
    5810.7      0.97562    
    5826.7      0.97583    
    5842.7      0.97603    
    5858.7      0.97623    
    5874.7      0.97642    
    5890.6      0.97662    
    5906.6      0.97681    
    5922.6      0.97700    
    5938.6      0.97719    
    5954.6      0.97738    
    5970.5      0.97756    
    5986.5      0.97774    
    6002.5      0.97792    
    6018.5      0.97810    
    6034.5      0.97827    
    6050.4      0.97845    
    6066.4      0.97862    
    6082.4      0.97879    
    6098.4      0.97896    
    6114.4      0.97912    
    6130.3      0.97929    
    6146.3      0.97945    
    6162.3      0.97961    
    6178.3      0.97977    
    6194.3      0.97993    
    6210.2      0.98009    
    6226.2      0.98024    
    6242.2      0.98039    
    6258.2      0.98054    
    6274.2      0.98069    
    6290.1      0.98084    
    6306.1      0.98099    
    6322.1      0.98113    
    6338.1      0.98128    
    6354.1      0.98142    
    6370.0      0.98156    
    6386.0      0.98170    
    6402.0      0.98184    
    6418.0      0.98197    
    6434.0      0.98211    
    6449.9      0.98224    
    6465.9      0.98237    
    6481.9      0.98251    
    6497.9      0.98264    
    6513.9      0.98276    
    6529.8      0.98289    
    6545.8      0.98302    
    6561.8      0.98314    
    6577.8      0.98326    
    6593.8      0.98339    
    6609.7      0.98351    
    6625.7      0.98363    
    6641.7      0.98374    
    6657.7      0.98386    
    6673.7      0.98398    
    6689.6      0.98409    
    6705.6      0.98421    
    6721.6      0.98432    
    6737.6      0.98443    
    6753.6      0.98454    
    6769.5      0.98465    
    6785.5      0.98476    
    6801.5      0.98486    
    6817.5      0.98497    
    6833.5      0.98507    
    6849.4      0.98518    
    6865.4      0.98528    
    6881.4      0.98538    
    6897.4      0.98548    
    6913.4      0.98558    
    6929.3      0.98568    
    6945.3      0.98578    
    6961.3      0.98588    
    6977.3      0.98597    
    6993.3      0.98607    
    7009.2      0.98616    
    7025.2      0.98625    
    7041.2      0.98635    
    7057.2      0.98644    
    7073.2      0.98653    
    7089.1      0.98662    
    7105.1      0.98671    
    7121.1      0.98679    
    7137.1      0.98688    
    7153.1      0.98697    
    7169.0      0.98705    
    7185.0      0.98714    
    7201.0      0.98722    
    7217.0      0.98730    
    7233.0      0.98739    
    7248.9      0.98747    
    7264.9      0.98755    
    7280.9      0.98763    
    7296.9      0.98771    
    7312.9      0.98779    
    7328.8      0.98786    
    7344.8      0.98794    
    7360.8      0.98802    
    7376.8      0.98809    
    7392.8      0.98817    
    7408.7      0.98824    
    7424.7      0.98832    
    7440.7      0.98839    
    7456.7      0.98846    
    7472.7      0.98853    
    7488.6      0.98860    
    7504.6      0.98867    
    7520.6      0.98874    
    7536.6      0.98881    
    7552.6      0.98888    
    7568.5      0.98895    
    7584.5      0.98902    
    7600.5      0.98908    
    7616.5      0.98915    
    7632.5      0.98921    
    7648.4      0.98928    
    7664.4      0.98934    
    7680.4      0.98941    
    7696.4      0.98947    
    7712.4      0.98953    
    7728.3      0.98959    
    7744.3      0.98966    
    7760.3      0.98972    
    7776.3      0.98978    
    7792.3      0.98984    
    7808.2      0.98990    
    7824.2      0.98995    
    7840.2      0.99001    
    7856.2      0.99007    
    7872.2      0.99013    
    7888.1      0.99018    
    7904.1      0.99024    
    7920.1      0.99030    
    7936.1      0.99035    
    7952.1      0.99041    
    7968.0      0.99046    
    7984.0      0.99052    
    8000.0      0.99057    
